# 18.11.2020
# 
# unfiltered x-ray spectrum
# measured at: PTB, Braunschweig
# anode: rhodium
# tube voltage: 43 kV
# anode angle: 18°
# inherent filtration: 0.15 mm Be
# measured in air at 100 cm distance from the focus
# bin width: 0.25 keV
# 
# energy 	 fluence
# (top of bin) 	 (normalised to total fluence and bin width)
# [keV] 	 [photons keV^-1 cm^-2]
2.500e-01 	 0.00000e+00
5.000e-01 	 0.00000e+00
7.500e-01 	 0.00000e+00
1.000e+00 	 0.00000e+00
1.250e+00 	 0.00000e+00
1.500e+00 	 0.00000e+00
1.750e+00 	 0.00000e+00
2.000e+00 	 0.00000e+00
2.250e+00 	 0.00000e+00
2.500e+00 	 0.00000e+00
2.750e+00 	 0.00000e+00
3.000e+00 	 0.00000e+00
3.250e+00 	 0.00000e+00
3.500e+00 	 0.00000e+00
3.750e+00 	 0.00000e+00
4.000e+00 	 0.00000e+00
4.250e+00 	 2.74186e-02
4.500e+00 	 4.48690e-02
4.750e+00 	 5.51190e-02
5.000e+00 	 7.35442e-02
5.250e+00 	 1.14440e-01
5.500e+00 	 1.90508e-01
5.750e+00 	 3.28622e-01
6.000e+00 	 4.11669e-01
6.250e+00 	 6.77301e-01
6.500e+00 	 8.17164e-01
6.750e+00 	 1.08369e+00
7.000e+00 	 1.29585e+00
7.250e+00 	 1.57361e+00
7.500e+00 	 1.81539e+00
7.750e+00 	 2.13111e+00
8.000e+00 	 2.53848e+00
8.250e+00 	 2.72316e+00
8.500e+00 	 2.87993e+00
8.750e+00 	 3.16047e+00
9.000e+00 	 3.53890e+00
9.250e+00 	 3.83393e+00
9.500e+00 	 3.80502e+00
9.750e+00 	 3.92312e+00
1.000e+01 	 4.72470e+00
1.025e+01 	 5.39621e+00
1.050e+01 	 2.86891e+00
1.075e+01 	 4.08203e+00
1.100e+01 	 4.35960e+00
1.125e+01 	 4.98214e+00
1.150e+01 	 4.84602e+00
1.175e+01 	 4.81727e+00
1.200e+01 	 4.87048e+00
1.225e+01 	 4.64326e+00
1.250e+01 	 4.80336e+00
1.275e+01 	 4.97073e+00
1.300e+01 	 4.53568e+00
1.325e+01 	 4.46865e+00
1.350e+01 	 4.55809e+00
1.375e+01 	 4.45977e+00
1.400e+01 	 4.49081e+00
1.425e+01 	 4.40230e+00
1.450e+01 	 4.34774e+00
1.475e+01 	 4.23141e+00
1.500e+01 	 4.27814e+00
1.525e+01 	 4.12045e+00
1.550e+01 	 4.13447e+00
1.575e+01 	 4.01582e+00
1.600e+01 	 3.98401e+00
1.625e+01 	 3.95543e+00
1.650e+01 	 3.79827e+00
1.675e+01 	 3.84759e+00
1.700e+01 	 3.70931e+00
1.725e+01 	 3.70123e+00
1.750e+01 	 3.58271e+00
1.775e+01 	 3.51539e+00
1.800e+01 	 3.51801e+00
1.825e+01 	 3.39943e+00
1.850e+01 	 3.42764e+00
1.875e+01 	 3.36202e+00
1.900e+01 	 3.37459e+00
1.925e+01 	 3.21254e+00
1.950e+01 	 3.52859e+00
1.975e+01 	 3.57342e+00
2.000e+01 	 2.99727e+01
2.025e+01 	 4.34751e+01
2.050e+01 	 7.16897e+00
2.075e+01 	 2.58752e+00
2.100e+01 	 2.93250e+00
2.125e+01 	 2.72901e+00
2.150e+01 	 2.74984e+00
2.175e+01 	 2.61016e+00
2.200e+01 	 2.87905e+00
2.225e+01 	 2.13765e+00
2.250e+01 	 6.12803e+00
2.275e+01 	 1.11474e+01
2.300e+01 	 4.51472e+00
2.325e+01 	 3.37554e+00
2.350e+01 	 1.96811e+00
2.375e+01 	 1.90235e+00
2.400e+01 	 1.86300e+00
2.425e+01 	 1.80795e+00
2.450e+01 	 1.81480e+00
2.475e+01 	 1.78666e+00
2.500e+01 	 1.78775e+00
2.525e+01 	 1.73212e+00
2.550e+01 	 1.71321e+00
2.575e+01 	 1.68278e+00
2.600e+01 	 1.62663e+00
2.625e+01 	 1.64307e+00
2.650e+01 	 1.60197e+00
2.675e+01 	 1.56937e+00
2.700e+01 	 1.53886e+00
2.725e+01 	 1.50287e+00
2.750e+01 	 1.49290e+00
2.775e+01 	 1.42524e+00
2.800e+01 	 1.45979e+00
2.825e+01 	 1.40449e+00
2.850e+01 	 1.37451e+00
2.875e+01 	 1.33984e+00
2.900e+01 	 1.32749e+00
2.925e+01 	 1.26580e+00
2.950e+01 	 1.27285e+00
2.975e+01 	 1.22045e+00
3.000e+01 	 1.25879e+00
3.025e+01 	 1.16070e+00
3.050e+01 	 1.17492e+00
3.075e+01 	 1.14581e+00
3.100e+01 	 1.11071e+00
3.125e+01 	 1.09940e+00
3.150e+01 	 1.06688e+00
3.175e+01 	 1.05001e+00
3.200e+01 	 1.00417e+00
3.225e+01 	 1.01263e+00
3.250e+01 	 9.43325e-01
3.275e+01 	 9.78816e-01
3.300e+01 	 8.96776e-01
3.325e+01 	 8.87774e-01
3.350e+01 	 8.83072e-01
3.375e+01 	 8.67733e-01
3.400e+01 	 8.23512e-01
3.425e+01 	 8.31311e-01
3.450e+01 	 7.48807e-01
3.475e+01 	 7.71299e-01
3.500e+01 	 7.28280e-01
3.525e+01 	 7.17234e-01
3.550e+01 	 7.06998e-01
3.575e+01 	 6.49235e-01
3.600e+01 	 6.52703e-01
3.625e+01 	 6.09660e-01
3.650e+01 	 6.25616e-01
3.675e+01 	 5.92603e-01
3.700e+01 	 5.41896e-01
3.725e+01 	 5.61445e-01
3.750e+01 	 5.08987e-01
3.775e+01 	 4.88558e-01
3.800e+01 	 4.80139e-01
3.825e+01 	 4.57655e-01
3.850e+01 	 4.32652e-01
3.875e+01 	 4.05709e-01
3.900e+01 	 3.82905e-01
3.925e+01 	 3.55964e-01
3.950e+01 	 3.46661e-01
3.975e+01 	 3.37218e-01
4.000e+01 	 3.16879e-01
4.025e+01 	 2.88543e-01
4.050e+01 	 2.66984e-01
4.075e+01 	 2.36480e-01
4.100e+01 	 2.09080e-01
4.125e+01 	 1.94480e-01
4.150e+01 	 1.64340e-01
4.175e+01 	 1.57667e-01
4.200e+01 	 1.27263e-01
4.225e+01 	 1.03135e-01
4.250e+01 	 7.38268e-02
4.275e+01 	 5.15164e-02
4.300e+01 	 2.02673e-02
4.325e+01 	 1.90672e-03
4.350e+01 	 2.39515e-03
4.375e+01 	 1.49807e-03
4.400e+01 	 2.38773e-03
4.425e+01 	 1.05596e-03
4.450e+01 	 1.81252e-03
4.475e+01 	 2.64127e-03
4.500e+01 	 4.33512e-04
4.525e+01 	 2.37022e-03
