# 18.11.2020
# 
# unfiltered x-ray spectrum
# measured at: PTB, Braunschweig
# anode: rhodium
# tube voltage: 38 kV
# anode angle: 18°
# inherent filtration: 0.15 mm Be
# measured in air at 100 cm distance from the focus
# bin width: 0.25 keV
# 
# energy 	 fluence
# (top of bin) 	 (normalised to total fluence and bin width)
# [keV] 	 [photons keV^-1 cm^-2]
2.500e-01 	 0.00000e+00
5.000e-01 	 0.00000e+00
7.500e-01 	 0.00000e+00
1.000e+00 	 0.00000e+00
1.250e+00 	 0.00000e+00
1.500e+00 	 0.00000e+00
1.750e+00 	 0.00000e+00
2.000e+00 	 0.00000e+00
2.250e+00 	 0.00000e+00
2.500e+00 	 0.00000e+00
2.750e+00 	 0.00000e+00
3.000e+00 	 0.00000e+00
3.250e+00 	 0.00000e+00
3.500e+00 	 0.00000e+00
3.750e+00 	 0.00000e+00
4.000e+00 	 0.00000e+00
4.250e+00 	 7.69262e-02
4.500e+00 	 2.78585e-02
4.750e+00 	 1.17308e-01
5.000e+00 	 1.09248e-01
5.250e+00 	 1.62369e-01
5.500e+00 	 2.82778e-01
5.750e+00 	 4.20027e-01
6.000e+00 	 5.88438e-01
6.250e+00 	 7.84796e-01
6.500e+00 	 1.08405e+00
6.750e+00 	 1.36978e+00
7.000e+00 	 1.66178e+00
7.250e+00 	 1.99940e+00
7.500e+00 	 2.25532e+00
7.750e+00 	 2.69645e+00
8.000e+00 	 3.08441e+00
8.250e+00 	 3.30054e+00
8.500e+00 	 3.50710e+00
8.750e+00 	 3.86207e+00
9.000e+00 	 4.17979e+00
9.250e+00 	 4.51320e+00
9.500e+00 	 4.48786e+00
9.750e+00 	 4.66234e+00
1.000e+01 	 5.37256e+00
1.025e+01 	 5.93996e+00
1.050e+01 	 3.86279e+00
1.075e+01 	 4.78677e+00
1.100e+01 	 5.07537e+00
1.125e+01 	 5.77459e+00
1.150e+01 	 5.56582e+00
1.175e+01 	 5.54038e+00
1.200e+01 	 5.50365e+00
1.225e+01 	 5.40793e+00
1.250e+01 	 5.44634e+00
1.275e+01 	 5.59384e+00
1.300e+01 	 5.17661e+00
1.325e+01 	 5.10942e+00
1.350e+01 	 5.19615e+00
1.375e+01 	 5.04468e+00
1.400e+01 	 5.04010e+00
1.425e+01 	 4.90167e+00
1.450e+01 	 4.81599e+00
1.475e+01 	 4.80697e+00
1.500e+01 	 4.70548e+00
1.525e+01 	 4.66866e+00
1.550e+01 	 4.46364e+00
1.575e+01 	 4.48956e+00
1.600e+01 	 4.37272e+00
1.625e+01 	 4.30524e+00
1.650e+01 	 4.23703e+00
1.675e+01 	 4.11175e+00
1.700e+01 	 4.06083e+00
1.725e+01 	 4.03071e+00
1.750e+01 	 3.89606e+00
1.775e+01 	 3.89488e+00
1.800e+01 	 3.77080e+00
1.825e+01 	 3.70099e+00
1.850e+01 	 3.65701e+00
1.875e+01 	 3.62206e+00
1.900e+01 	 3.56053e+00
1.925e+01 	 3.41621e+00
1.950e+01 	 3.63197e+00
1.975e+01 	 3.65054e+00
2.000e+01 	 2.51024e+01
2.025e+01 	 3.66499e+01
2.050e+01 	 6.77576e+00
2.075e+01 	 2.70868e+00
2.100e+01 	 3.07405e+00
2.125e+01 	 2.86195e+00
2.150e+01 	 2.82727e+00
2.175e+01 	 2.75897e+00
2.200e+01 	 2.82888e+00
2.225e+01 	 2.37643e+00
2.250e+01 	 5.43024e+00
2.275e+01 	 9.68285e+00
2.300e+01 	 4.22174e+00
2.325e+01 	 3.25536e+00
2.350e+01 	 2.06051e+00
2.375e+01 	 2.02142e+00
2.400e+01 	 1.90149e+00
2.425e+01 	 1.96946e+00
2.450e+01 	 1.83991e+00
2.475e+01 	 1.87000e+00
2.500e+01 	 1.81957e+00
2.525e+01 	 1.77844e+00
2.550e+01 	 1.75767e+00
2.575e+01 	 1.68713e+00
2.600e+01 	 1.67035e+00
2.625e+01 	 1.60652e+00
2.650e+01 	 1.59473e+00
2.675e+01 	 1.51937e+00
2.700e+01 	 1.52146e+00
2.725e+01 	 1.44085e+00
2.750e+01 	 1.50542e+00
2.775e+01 	 1.37216e+00
2.800e+01 	 1.41079e+00
2.825e+01 	 1.27351e+00
2.850e+01 	 1.35866e+00
2.875e+01 	 1.24585e+00
2.900e+01 	 1.24475e+00
2.925e+01 	 1.21604e+00
2.950e+01 	 1.13812e+00
2.975e+01 	 1.14573e+00
3.000e+01 	 1.09671e+00
3.025e+01 	 1.05607e+00
3.050e+01 	 1.02762e+00
3.075e+01 	 1.01238e+00
3.100e+01 	 9.60754e-01
3.125e+01 	 9.38588e-01
3.150e+01 	 8.89815e-01
3.175e+01 	 8.85594e-01
3.200e+01 	 8.22599e-01
3.225e+01 	 7.77506e-01
3.250e+01 	 7.87128e-01
3.275e+01 	 7.21166e-01
3.300e+01 	 7.17832e-01
3.325e+01 	 6.59853e-01
3.350e+01 	 6.55231e-01
3.375e+01 	 6.00768e-01
3.400e+01 	 5.86972e-01
3.425e+01 	 5.47102e-01
3.450e+01 	 5.34439e-01
3.475e+01 	 4.76072e-01
3.500e+01 	 4.48133e-01
3.525e+01 	 4.36493e-01
3.550e+01 	 3.70023e-01
3.575e+01 	 3.62528e-01
3.600e+01 	 3.06384e-01
3.625e+01 	 2.98954e-01
3.650e+01 	 2.48744e-01
3.675e+01 	 2.29212e-01
3.700e+01 	 1.89123e-01
3.725e+01 	 1.52152e-01
3.750e+01 	 1.14133e-01
3.775e+01 	 7.23974e-02
3.800e+01 	 3.10555e-02
3.825e+01 	 2.17411e-03
3.850e+01 	 2.57792e-03
3.875e+01 	 2.94833e-03
3.900e+01 	 3.04145e-03
3.925e+01 	 1.69169e-03
3.950e+01 	 9.37225e-04
3.975e+01 	 2.35554e-03
4.000e+01 	 1.94929e-03
4.025e+01 	 2.48453e-03
