# 18.11.2020
# 
# unfiltered x-ray spectrum
# measured at: PTB, Braunschweig
# anode: tungsten
# tube voltage: 48 kV
# anode angle: 30°
# inherent filtration: 4 mm Be
# measured in air at 100 cm distance from the focus
# bin width: 0.25 keV
# 
# energy 	 fluence
# (top of bin) 	 (normalised to total fluence and bin width)
# [keV] 	 [photons keV^-1 cm^-2]
2.500e-01 	 0.00000e+00
5.000e-01 	 0.00000e+00
7.500e-01 	 0.00000e+00
1.000e+00 	 0.00000e+00
1.250e+00 	 0.00000e+00
1.500e+00 	 0.00000e+00
1.750e+00 	 0.00000e+00
2.000e+00 	 0.00000e+00
2.250e+00 	 0.00000e+00
2.500e+00 	 0.00000e+00
2.750e+00 	 0.00000e+00
3.000e+00 	 0.00000e+00
3.250e+00 	 0.00000e+00
3.500e+00 	 0.00000e+00
3.750e+00 	 0.00000e+00
4.000e+00 	 0.00000e+00
4.250e+00 	 7.28714e-02
4.500e+00 	 6.15165e-02
4.750e+00 	 4.05163e-02
5.000e+00 	 6.39946e-02
5.250e+00 	 6.14840e-02
5.500e+00 	 7.75796e-02
5.750e+00 	 1.13853e-01
6.000e+00 	 1.61470e-01
6.250e+00 	 2.66230e-01
6.500e+00 	 3.59199e-01
6.750e+00 	 4.37428e-01
7.000e+00 	 5.76164e-01
7.250e+00 	 8.64183e-01
7.500e+00 	 1.10490e+00
7.750e+00 	 1.65991e+00
8.000e+00 	 2.69707e+00
8.250e+00 	 1.23182e+01
8.500e+00 	 1.42750e+01
8.750e+00 	 2.81284e+00
9.000e+00 	 3.05871e+00
9.250e+00 	 3.36117e+00
9.500e+00 	 1.34301e+01
9.750e+00 	 2.20851e+01
1.000e+01 	 1.27837e+01
1.025e+01 	 4.37879e+00
1.050e+01 	 2.31063e+00
1.075e+01 	 2.61025e+00
1.100e+01 	 3.30101e+00
1.125e+01 	 6.80547e+00
1.150e+01 	 5.59986e+00
1.175e+01 	 3.88097e+00
1.200e+01 	 3.05935e+00
1.225e+01 	 2.75975e+00
1.250e+01 	 2.65761e+00
1.275e+01 	 2.83094e+00
1.300e+01 	 2.87312e+00
1.325e+01 	 2.90796e+00
1.350e+01 	 2.97180e+00
1.375e+01 	 3.02967e+00
1.400e+01 	 3.05137e+00
1.425e+01 	 3.14798e+00
1.450e+01 	 3.14929e+00
1.475e+01 	 3.18611e+00
1.500e+01 	 3.21465e+00
1.525e+01 	 3.26667e+00
1.550e+01 	 3.23289e+00
1.575e+01 	 3.29078e+00
1.600e+01 	 3.31383e+00
1.625e+01 	 3.29743e+00
1.650e+01 	 3.29356e+00
1.675e+01 	 3.34783e+00
1.700e+01 	 3.29559e+00
1.725e+01 	 3.32049e+00
1.750e+01 	 3.32783e+00
1.775e+01 	 3.30461e+00
1.800e+01 	 3.24619e+00
1.825e+01 	 3.31363e+00
1.850e+01 	 3.24325e+00
1.875e+01 	 3.23153e+00
1.900e+01 	 3.25999e+00
1.925e+01 	 3.20466e+00
1.950e+01 	 3.19953e+00
1.975e+01 	 3.18953e+00
2.000e+01 	 3.14657e+00
2.025e+01 	 3.12928e+00
2.050e+01 	 3.07318e+00
2.075e+01 	 3.11832e+00
2.100e+01 	 3.05827e+00
2.125e+01 	 3.02154e+00
2.150e+01 	 3.01951e+00
2.175e+01 	 2.96009e+00
2.200e+01 	 3.03461e+00
2.225e+01 	 2.98040e+00
2.250e+01 	 2.89107e+00
2.275e+01 	 2.88521e+00
2.300e+01 	 2.84748e+00
2.325e+01 	 2.77839e+00
2.350e+01 	 2.77234e+00
2.375e+01 	 2.79179e+00
2.400e+01 	 2.71131e+00
2.425e+01 	 2.66732e+00
2.450e+01 	 2.69972e+00
2.475e+01 	 2.60850e+00
2.500e+01 	 2.63342e+00
2.525e+01 	 2.57446e+00
2.550e+01 	 2.50981e+00
2.575e+01 	 2.50819e+00
2.600e+01 	 2.49965e+00
2.625e+01 	 2.41623e+00
2.650e+01 	 2.41571e+00
2.675e+01 	 2.39805e+00
2.700e+01 	 2.32912e+00
2.725e+01 	 2.33437e+00
2.750e+01 	 2.28088e+00
2.775e+01 	 2.25816e+00
2.800e+01 	 2.23005e+00
2.825e+01 	 2.20237e+00
2.850e+01 	 2.14747e+00
2.875e+01 	 2.14848e+00
2.900e+01 	 2.09895e+00
2.925e+01 	 2.08352e+00
2.950e+01 	 2.01276e+00
2.975e+01 	 2.03505e+00
3.000e+01 	 1.97099e+00
3.025e+01 	 1.95328e+00
3.050e+01 	 1.93273e+00
3.075e+01 	 1.87381e+00
3.100e+01 	 1.88390e+00
3.125e+01 	 1.81391e+00
3.150e+01 	 1.81288e+00
3.175e+01 	 1.75463e+00
3.200e+01 	 1.74573e+00
3.225e+01 	 1.70870e+00
3.250e+01 	 1.69176e+00
3.275e+01 	 1.63559e+00
3.300e+01 	 1.66145e+00
3.325e+01 	 1.58446e+00
3.350e+01 	 1.58506e+00
3.375e+01 	 1.51908e+00
3.400e+01 	 1.54202e+00
3.425e+01 	 1.47283e+00
3.450e+01 	 1.47214e+00
3.475e+01 	 1.41764e+00
3.500e+01 	 1.43445e+00
3.525e+01 	 1.37650e+00
3.550e+01 	 1.36483e+00
3.575e+01 	 1.31708e+00
3.600e+01 	 1.30259e+00
3.625e+01 	 1.26256e+00
3.650e+01 	 1.25301e+00
3.675e+01 	 1.21133e+00
3.700e+01 	 1.19223e+00
3.725e+01 	 1.18546e+00
3.750e+01 	 1.12228e+00
3.775e+01 	 1.12684e+00
3.800e+01 	 1.07536e+00
3.825e+01 	 1.07174e+00
3.850e+01 	 1.03849e+00
3.875e+01 	 9.96629e-01
3.900e+01 	 9.99836e-01
3.925e+01 	 9.67380e-01
3.950e+01 	 9.33748e-01
3.975e+01 	 9.16763e-01
4.000e+01 	 8.70692e-01
4.025e+01 	 8.73493e-01
4.050e+01 	 8.38969e-01
4.075e+01 	 7.92956e-01
4.100e+01 	 8.02921e-01
4.125e+01 	 7.56740e-01
4.150e+01 	 7.45323e-01
4.175e+01 	 7.17388e-01
4.200e+01 	 6.84160e-01
4.225e+01 	 6.61235e-01
4.250e+01 	 6.41238e-01
4.275e+01 	 6.11802e-01
4.300e+01 	 5.89016e-01
4.325e+01 	 5.49576e-01
4.350e+01 	 5.51731e-01
4.375e+01 	 5.07348e-01
4.400e+01 	 4.87026e-01
4.425e+01 	 4.55909e-01
4.450e+01 	 4.42122e-01
4.475e+01 	 4.11429e-01
4.500e+01 	 3.92193e-01
4.525e+01 	 3.52374e-01
4.550e+01 	 3.37744e-01
4.575e+01 	 3.10736e-01
4.600e+01 	 2.76083e-01
4.625e+01 	 2.53406e-01
4.650e+01 	 2.16435e-01
4.675e+01 	 2.15489e-01
4.700e+01 	 1.49809e-01
4.725e+01 	 1.40761e-01
4.750e+01 	 9.03317e-02
4.775e+01 	 6.66198e-02
4.800e+01 	 1.87599e-02
4.825e+01 	 7.88617e-03
4.850e+01 	 4.77194e-03
4.875e+01 	 5.12900e-03
4.900e+01 	 4.87777e-03
4.925e+01 	 4.47492e-03
4.950e+01 	 4.91439e-03
4.975e+01 	 4.63316e-03
5.000e+01 	 4.74297e-03
5.025e+01 	 3.73157e-03
