# 18.11.2020
# 
# unfiltered x-ray spectrum
# measured at: PTB, Braunschweig
# anode: tungsten
# tube voltage: 49 kV
# anode angle: 30°
# inherent filtration: 4 mm Be
# measured in air at 100 cm distance from the focus
# bin width: 0.25 keV
# 
# energy 	 fluence
# (top of bin) 	 (normalised to total fluence and bin width)
# [keV] 	 [photons keV^-1 cm^-2]
2.500e-01 	 0.00000e+00
5.000e-01 	 0.00000e+00
7.500e-01 	 0.00000e+00
1.000e+00 	 0.00000e+00
1.250e+00 	 0.00000e+00
1.500e+00 	 0.00000e+00
1.750e+00 	 0.00000e+00
2.000e+00 	 0.00000e+00
2.250e+00 	 0.00000e+00
2.500e+00 	 0.00000e+00
2.750e+00 	 0.00000e+00
3.000e+00 	 0.00000e+00
3.250e+00 	 0.00000e+00
3.500e+00 	 0.00000e+00
3.750e+00 	 0.00000e+00
4.000e+00 	 0.00000e+00
4.250e+00 	 5.36335e-02
4.500e+00 	 4.63385e-02
4.750e+00 	 4.49149e-02
5.000e+00 	 5.53457e-02
5.250e+00 	 4.43302e-02
5.500e+00 	 8.76628e-02
5.750e+00 	 1.10625e-01
6.000e+00 	 1.46761e-01
6.250e+00 	 2.77524e-01
6.500e+00 	 3.47823e-01
6.750e+00 	 4.31744e-01
7.000e+00 	 5.65626e-01
7.250e+00 	 8.43473e-01
7.500e+00 	 1.07491e+00
7.750e+00 	 1.61424e+00
8.000e+00 	 2.64988e+00
8.250e+00 	 1.22038e+01
8.500e+00 	 1.41994e+01
8.750e+00 	 2.71033e+00
9.000e+00 	 2.98853e+00
9.250e+00 	 3.22461e+00
9.500e+00 	 1.33335e+01
9.750e+00 	 2.20659e+01
1.000e+01 	 1.25920e+01
1.025e+01 	 4.36984e+00
1.050e+01 	 2.18180e+00
1.075e+01 	 2.58074e+00
1.100e+01 	 3.21673e+00
1.125e+01 	 6.71011e+00
1.150e+01 	 5.50564e+00
1.175e+01 	 3.77340e+00
1.200e+01 	 3.01116e+00
1.225e+01 	 2.67336e+00
1.250e+01 	 2.66547e+00
1.275e+01 	 2.72632e+00
1.300e+01 	 2.83737e+00
1.325e+01 	 2.80793e+00
1.350e+01 	 2.94738e+00
1.375e+01 	 2.94197e+00
1.400e+01 	 3.02653e+00
1.425e+01 	 3.04532e+00
1.450e+01 	 3.11554e+00
1.475e+01 	 3.14827e+00
1.500e+01 	 3.14838e+00
1.525e+01 	 3.18252e+00
1.550e+01 	 3.18605e+00
1.575e+01 	 3.23429e+00
1.600e+01 	 3.25106e+00
1.625e+01 	 3.23098e+00
1.650e+01 	 3.27057e+00
1.675e+01 	 3.28496e+00
1.700e+01 	 3.24585e+00
1.725e+01 	 3.27264e+00
1.750e+01 	 3.24356e+00
1.775e+01 	 3.21869e+00
1.800e+01 	 3.27683e+00
1.825e+01 	 3.19005e+00
1.850e+01 	 3.24903e+00
1.875e+01 	 3.17219e+00
1.900e+01 	 3.20012e+00
1.925e+01 	 3.18014e+00
1.950e+01 	 3.18751e+00
1.975e+01 	 3.10166e+00
2.000e+01 	 3.13240e+00
2.025e+01 	 3.07865e+00
2.050e+01 	 3.07553e+00
2.075e+01 	 3.02746e+00
2.100e+01 	 3.06186e+00
2.125e+01 	 2.99187e+00
2.150e+01 	 2.99926e+00
2.175e+01 	 2.97805e+00
2.200e+01 	 2.96168e+00
2.225e+01 	 2.96977e+00
2.250e+01 	 2.86526e+00
2.275e+01 	 2.86901e+00
2.300e+01 	 2.82553e+00
2.325e+01 	 2.77572e+00
2.350e+01 	 2.77913e+00
2.375e+01 	 2.72359e+00
2.400e+01 	 2.70841e+00
2.425e+01 	 2.69022e+00
2.450e+01 	 2.63956e+00
2.475e+01 	 2.64222e+00
2.500e+01 	 2.61096e+00
2.525e+01 	 2.55076e+00
2.550e+01 	 2.52795e+00
2.575e+01 	 2.51135e+00
2.600e+01 	 2.45696e+00
2.625e+01 	 2.42590e+00
2.650e+01 	 2.41993e+00
2.675e+01 	 2.37546e+00
2.700e+01 	 2.36346e+00
2.725e+01 	 2.27776e+00
2.750e+01 	 2.30229e+00
2.775e+01 	 2.20597e+00
2.800e+01 	 2.27362e+00
2.825e+01 	 2.16341e+00
2.850e+01 	 2.17311e+00
2.875e+01 	 2.12693e+00
2.900e+01 	 2.09992e+00
2.925e+01 	 2.08843e+00
2.950e+01 	 2.04142e+00
2.975e+01 	 2.02677e+00
3.000e+01 	 1.96235e+00
3.025e+01 	 1.97304e+00
3.050e+01 	 1.91442e+00
3.075e+01 	 1.93364e+00
3.100e+01 	 1.85417e+00
3.125e+01 	 1.86245e+00
3.150e+01 	 1.80174e+00
3.175e+01 	 1.80572e+00
3.200e+01 	 1.76646e+00
3.225e+01 	 1.74323e+00
3.250e+01 	 1.69450e+00
3.275e+01 	 1.68610e+00
3.300e+01 	 1.65102e+00
3.325e+01 	 1.62212e+00
3.350e+01 	 1.60088e+00
3.375e+01 	 1.55815e+00
3.400e+01 	 1.55053e+00
3.425e+01 	 1.51984e+00
3.450e+01 	 1.47873e+00
3.475e+01 	 1.47564e+00
3.500e+01 	 1.42895e+00
3.525e+01 	 1.42223e+00
3.550e+01 	 1.37700e+00
3.575e+01 	 1.36447e+00
3.600e+01 	 1.33165e+00
3.625e+01 	 1.30090e+00
3.650e+01 	 1.28249e+00
3.675e+01 	 1.25995e+00
3.700e+01 	 1.20834e+00
3.725e+01 	 1.23251e+00
3.750e+01 	 1.15763e+00
3.775e+01 	 1.17921e+00
3.800e+01 	 1.11416e+00
3.825e+01 	 1.11018e+00
3.850e+01 	 1.07789e+00
3.875e+01 	 1.06228e+00
3.900e+01 	 1.00993e+00
3.925e+01 	 1.02234e+00
3.950e+01 	 9.72073e-01
3.975e+01 	 9.67934e-01
4.000e+01 	 9.28209e-01
4.025e+01 	 9.10987e-01
4.050e+01 	 8.75032e-01
4.075e+01 	 8.70076e-01
4.100e+01 	 8.32074e-01
4.125e+01 	 8.17069e-01
4.150e+01 	 7.82270e-01
4.175e+01 	 7.68735e-01
4.200e+01 	 7.40776e-01
4.225e+01 	 7.17361e-01
4.250e+01 	 6.97464e-01
4.275e+01 	 6.69012e-01
4.300e+01 	 6.48447e-01
4.325e+01 	 6.21494e-01
4.350e+01 	 6.16324e-01
4.375e+01 	 5.57719e-01
4.400e+01 	 5.60712e-01
4.425e+01 	 5.27327e-01
4.450e+01 	 5.11145e-01
4.475e+01 	 4.82453e-01
4.500e+01 	 4.72117e-01
4.525e+01 	 4.22409e-01
4.550e+01 	 4.20298e-01
4.575e+01 	 3.83364e-01
4.600e+01 	 3.60339e-01
4.625e+01 	 3.45102e-01
4.650e+01 	 3.11902e-01
4.675e+01 	 2.91778e-01
4.700e+01 	 2.51947e-01
4.725e+01 	 2.43971e-01
4.750e+01 	 2.04292e-01
4.775e+01 	 1.93568e-01
4.800e+01 	 1.45437e-01
4.825e+01 	 1.37102e-01
4.850e+01 	 8.32346e-02
4.875e+01 	 6.07011e-02
4.900e+01 	 1.87387e-02
4.925e+01 	 6.56588e-03
4.950e+01 	 4.06405e-03
4.975e+01 	 4.45885e-03
5.000e+01 	 3.76063e-03
5.025e+01 	 4.68236e-03
5.050e+01 	 4.98350e-03
5.075e+01 	 3.19316e-03
5.100e+01 	 4.54121e-03
5.125e+01 	 3.50829e-03
